#  lambda (microns),     nu*Inu,      uncertainty
#  AROME
      3.30000  5.77732e-09  2.62606e-09
#  ISOCAM / CVF spectrum
      5.07900   5.2291139e-10   6.2094615e-11
      5.14100   4.5712453e-10   5.4282564e-11
      5.20200   1.1447495e-09   1.3593657e-10
      5.26400   1.9085616e-09   2.2663763e-10
      5.32500   1.4987675e-09   1.7797545e-10
      5.38500   9.5607493e-10   1.1353186e-10
      5.44600   9.0736636e-10   1.0774782e-10
      5.50700   6.7491269e-10   8.0144446e-11
      5.56700   1.7117274e-09   2.0326398e-10
      5.62700   1.9437758e-09   2.3081923e-10
      5.68700   2.9449449e-09   3.4970594e-10
      5.74700   2.4359958e-09   2.8926931e-10
      5.80700   2.5818234e-09   3.0658603e-10
      5.86700   2.7611406e-09   3.2787957e-10
      5.92600   2.7096107e-09   3.2176050e-10
      5.98500   3.4780481e-09   4.1301081e-10
      6.04400   5.3389312e-09   6.3398672e-10
      6.10300   8.7083282e-09   1.0340954e-09
      6.16200   1.4651706e-08   1.7398589e-09
      6.22100   1.8920162e-08   2.2467290e-09
      6.27900   1.9087848e-08   2.2666413e-09
      6.33700   1.5500767e-08   1.8406831e-09
      6.39600   1.2166391e-08   1.4447330e-09
      6.45400   8.8602097e-09   1.0521310e-09
      6.51100   6.7170537e-09   7.9763583e-10
      6.56900   5.9985402e-09   7.1231388e-10
      6.62600   6.0383557e-09   7.1704189e-10
      6.68400   5.8614360e-09   6.9603305e-10
      6.74100   6.0747770e-09   7.2136683e-10
      6.79800   6.0581949e-09   7.1939775e-10
      6.85500   6.4292119e-09   7.6345522e-10
      6.91100   7.4401106e-09   8.8349730e-10
      6.96800   8.5373011e-09   1.0137863e-09
      7.02400   9.1464781e-09   1.0861248e-09
      7.08000   8.5799670e-09   1.0188528e-09
      7.13600   7.6064328e-09   9.0324770e-10
      7.19200   8.2245135e-09   9.7664347e-10
      7.24800   8.6814429e-09   1.0309029e-09
      7.30300   1.0615113e-08   1.2605221e-09
      7.35800   1.3232377e-08   1.5713166e-09
      7.41400   1.5893385e-08   1.8873056e-09
      7.46900   1.9207286e-08   2.2808244e-09
      7.52400   2.2822979e-08   2.7101801e-09
      7.57800   2.6540139e-08   3.1515850e-09
      7.63300   2.7549454e-08   3.2714390e-09
      7.68700   2.7756190e-08   3.2959884e-09
      7.74100   2.6616926e-08   3.1607033e-09
      7.79500   2.5344596e-08   3.0096169e-09
      7.84900   2.3732612e-08   2.8181972e-09
      7.90300   2.1975390e-08   2.6095308e-09
      7.95600   1.8971006e-08   2.2527666e-09
      8.01000   1.6512248e-08   1.9607943e-09
      8.06300   1.4666939e-08   1.7416678e-09
      8.11600   1.3384484e-08   1.5893790e-09
      8.16900   1.2150223e-08   1.4428131e-09
      8.22200   1.1573861e-08   1.3743713e-09
      8.27400   1.1213238e-08   1.3315481e-09
      8.32700   1.1618348e-08   1.3796541e-09
      8.37900   1.2009073e-08   1.4260519e-09
      8.43100   1.2701019e-08   1.5082190e-09
      8.48300   1.3709267e-08   1.6279463e-09
      8.53400   1.4239496e-08   1.6909098e-09
      8.58600   1.4746738e-08   1.7511438e-09
      8.63700   1.3735578e-08   1.6310706e-09
      8.68900   1.2323956e-08   1.4634436e-09
      8.74000   1.0476640e-08   1.2440787e-09
      8.79100   8.5197425e-09   1.0117013e-09
      8.84200   7.0249704e-09   8.3420028e-10
      8.89200   5.7492054e-09   6.8270590e-10
      8.94300   4.9010497e-09   5.8198922e-10
      8.99300   4.2649502e-09   5.0645376e-10
      9.04300   4.4293718e-09   5.2597847e-10
      9.09300   3.5198391e-09   4.1797340e-10
      9.14300   3.3454755e-09   3.9726809e-10
      9.19200   2.7165829e-09   3.2258844e-10
      9.24200   2.6788952e-09   3.1811310e-10
      9.29100   2.7364469e-09   3.2494724e-10
      9.33300   2.8208249e-09   3.3496696e-10
      9.44200   2.7996888e-09   3.3245709e-10
      9.55100   2.9334110e-09   3.4833631e-10
      9.66000   2.8397454e-09   3.3721372e-10
      9.76900   2.6370675e-09   3.1314615e-10
      9.87800   2.4282081e-09   2.8834455e-10
      9.98600   2.1579772e-09   2.5625520e-10
      10.0900   1.9378232e-09   2.3011238e-10
      10.2000   2.0843267e-09   2.4750936e-10
      10.3100   1.6742286e-09   1.9881109e-10
      10.4200   2.3725914e-09   2.8174017e-10
      10.5200   2.8071331e-09   3.3334108e-10
      10.6300   3.5281855e-09   4.1896452e-10
      10.7400   3.7665727e-09   4.4727249e-10
      10.8400   3.9094980e-09   4.6424457e-10
      10.9500   5.5776948e-09   6.6233939e-10
      11.0600   8.8462280e-09   1.0504707e-09
      11.1600   1.6300434e-08   1.9356419e-09
      11.2700   2.1041545e-08   2.4986387e-09
      11.3700   2.0343124e-08   2.4157026e-09
      11.4800   1.4988375e-08   1.7798377e-09
      11.5800   1.0352929e-08   1.2293883e-09
      11.6900   8.5083997e-09   1.0103544e-09
      11.7900   7.6541478e-09   9.0891376e-10
      11.8900   7.8064778e-09   9.2700262e-10
      12.0000   8.0271573e-09   9.5320784e-10
      12.1000   7.9037033e-09   9.3854795e-10
      12.2100   7.8123143e-09   9.2769569e-10
      12.3100   8.1566290e-09   9.6858234e-10
      12.4100   9.0017828e-09   1.0689425e-09
      12.5100   9.6777232e-09   1.1492090e-09
      12.6200   1.1518823e-08   1.3678357e-09
      12.7200   1.3301497e-08   1.5795244e-09
      12.8200   1.3446928e-08   1.5967941e-09
      12.9200   1.1648739e-08   1.3832630e-09
      13.0200   7.9198142e-09   9.4046108e-10
      13.1200   5.8160331e-09   6.9064156e-10
      13.2300   5.3316159e-09   6.3311804e-10
      13.3300   4.9531378e-09   5.8817457e-10
      13.4300   5.1608752e-09   6.1284294e-10
      13.5300   5.1622388e-09   6.1300487e-10
      13.6300   4.9046323e-09   5.8241464e-10
      13.7300   4.4641947e-09   5.3011362e-10
      13.8300   4.0532391e-09   4.8131352e-10
      13.9300   3.9854992e-09   4.7326955e-10
      14.0200   4.1281421e-09   4.9020808e-10
      14.1200   3.9530603e-09   4.6941750e-10
      14.2200   4.1176834e-09   4.8896614e-10
      14.3200   3.9792427e-09   4.7252660e-10
      14.4200   3.7011852e-09   4.3950786e-10
      14.5200   3.2900146e-09   3.9068224e-10
      14.6100   3.0739330e-09   3.6502300e-10
      14.7100   3.0476829e-09   3.6190586e-10
      14.8100   2.8273654e-09   3.3574362e-10
      14.9100   2.9192263e-09   3.4665191e-10
      15.0000   2.8676199e-09   3.4052376e-10
      15.1000   2.4679742e-09   2.9306668e-10
      15.1900   2.7636580e-09   3.2817850e-10
      15.2900   2.6995240e-09   3.2056273e-10
      15.3900   2.8615697e-09   3.3980531e-10
      15.4800   3.0455389e-09   3.6165126e-10
      15.5800   3.0630955e-09   3.6373607e-10
      15.6700   3.0643629e-09   3.6388657e-10
      15.7700   2.8912206e-09   3.4332629e-10
      15.8600   2.5906040e-09   3.0762871e-10
      15.9600   2.4838685e-09   2.9495409e-10
      16.0500   1.9846841e-09   2.3567701e-10
      16.1400   2.0644194e-09   2.4514541e-10
      16.2400   2.1724413e-09   2.5797278e-10
      16.3300   2.2169722e-09   2.6326074e-10
      16.4200   2.4526290e-09   2.9124448e-10
      16.5200   2.5057884e-09   2.9755704e-10
#  DIRBE
      3.50000   8.3683087e-10   9.9460547e-11
      4.90000   9.5049878e-10   1.1327558e-10
      12.0000   6.1619105e-09   7.3171375e-10
      25.0000   3.0729528e-09   3.6507055e-10
      60.0000   4.7594299e-09   1.0671431e-10
      100.000   1.6004962e-08   1.9002394e-09
      140.000   2.1655763e-08   1.8773503e-09
      240.000   9.9214779e-09   8.8994712e-10
#  FIRAS
      1200.00   3.1407581e-11   7.8242539e-12
      1102.60   5.0026539e-11   1.7111666e-11
      1050.10   4.6519111e-11   3.8628447e-11
      1002.37   3.7569874e-11   2.5192210e-11
      958.786   7.0830888e-11   2.3160252e-11
      918.836   1.1826980e-10   4.6924502e-11
      882.083   1.1540880e-10   5.0697213e-11
      848.157   9.6737362e-11   1.7004950e-11
      816.744   1.0925026e-10   1.2910481e-11
      787.574   1.9540620e-10   3.0130783e-11
      760.416   2.4732856e-10   1.7790677e-11
      735.069   2.3307203e-10   5.4988614e-12
      711.357   2.6210700e-10   3.8254940e-11
      689.127   3.3127350e-10   4.1874004e-11
      668.245   3.5977451e-10   2.0504181e-11
      648.590   4.0006717e-10   6.5152956e-11
      630.059   4.4044153e-10   6.8368026e-11
      612.558   5.0913587e-10   7.9521986e-11
      596.002   5.3788827e-10   5.2917314e-11
      580.318   5.5369974e-10   1.1832872e-10
      565.438   6.7397402e-10   1.3676703e-10
      551.302   7.2822230e-10   6.2451582e-11
      537.856   8.3490323e-10   1.2838702e-10
      525.049   8.8964823e-10   1.2642092e-10
      512.839   9.6500503e-10   1.2236584e-10
      501.184   1.0525639e-09   1.0915523e-10
      490.046   1.1648933e-09   1.2771681e-10
      479.393   1.3924859e-09   3.9346384e-10
      469.193   1.4494335e-09   5.7985371e-10
      459.418   1.5651780e-09   2.0806038e-10
      450.042   1.5651196e-09   2.4489185e-10
      441.041   1.7365327e-09   8.0895209e-12
      432.394   1.5928840e-09   3.5916524e-11
      424.078   1.7336149e-09   5.4317288e-11
      416.077   2.1188453e-09   1.3178933e-10
      408.372   2.1096102e-09   6.5916361e-11
      400.947   2.0945612e-09   1.8251173e-11
      393.787   2.3713600e-09   1.9237453e-10
      386.878   2.6009791e-09   1.9066970e-10
      380.208   2.5859639e-09   2.4161810e-11
      373.764   2.8666851e-09   2.6213058e-10
      367.535   2.9866533e-09   1.4695087e-10
      361.509   3.4366484e-09   2.5201886e-10
      355.679   3.3667357e-09   2.7711372e-10
      350.033   3.3805697e-09   2.0091166e-10
      344.564   3.9137883e-09   4.6677935e-10
      339.263   3.8590838e-09   5.3739999e-10
      334.122   3.9537274e-09   1.5314408e-10
      329.135   4.1660433e-09   5.4099954e-10
      324.295   4.4733294e-09   7.1682475e-10
      319.595   5.1664747e-09   4.4411234e-10
      315.030   4.9896269e-09   6.8089233e-10
      310.593   4.8357750e-09   2.7426635e-10
      306.279   5.3723372e-09   4.0917320e-10
      302.083   5.7548073e-09   6.5334879e-10
      298.001   5.9879241e-09   7.5083288e-10
      294.028   5.9281208e-09   6.9126983e-10
      290.159   5.9874528e-09   4.1761118e-10
      286.391   6.3328836e-09   3.9955794e-10
      282.719   6.8420047e-09   5.5343166e-10
      279.140   6.9312740e-09   5.5058364e-10
      275.651   7.5666517e-09   8.4195406e-10
      272.248   7.5724820e-09   1.0608845e-09
      268.928   7.7109130e-09   6.7225439e-10
      265.688   8.0096494e-09   6.5225576e-10
      262.525   8.1060549e-09   1.0012648e-09
      259.436   8.6536681e-09   6.5233591e-10
      256.419   9.1265661e-09   9.8042278e-10
      253.472   9.0129538e-09   8.6444281e-10
      250.592   9.3782143e-09   9.4820873e-10
      247.776   9.7372641e-09   1.0031345e-09
      245.023   1.0216787e-08   1.1518708e-09
      242.330   1.0588675e-08   1.0054290e-09
      239.696   1.1198518e-08   1.2066763e-09
      237.119   1.1482619e-08   1.1944485e-09
      234.597   1.1682618e-08   7.0677923e-10
      232.127   1.1337459e-08   8.4622469e-10
      229.709   1.1420857e-08   1.1161015e-09
      227.341   1.2278542e-08   1.2265490e-09
      225.021   1.2962651e-08   1.2999091e-09
      222.748   1.2523351e-08   1.0091450e-09
      220.521   1.3836611e-08   9.9961640e-10
      218.337   1.3676194e-08   1.3333134e-09
      216.197   1.3990969e-08   1.1588696e-09
      214.098   1.4193242e-08   1.1576825e-09
      212.039   1.4551790e-08   1.3087717e-09
      210.020   1.4636181e-08   1.2781613e-09
      208.038   1.4982972e-08   1.1357586e-09
      206.094   1.5127193e-08   1.1043191e-09
      204.186   1.5326317e-08   1.2502158e-09
      202.313   1.5468080e-08   1.0533333e-09
      200.473   1.5620870e-08   1.4537262e-09
      198.667   1.5809351e-08   1.5091857e-09
      196.894   1.6758291e-08   1.3105141e-09
      195.151   1.7298968e-08   1.2197910e-09
      193.439   1.7511475e-08   1.2056109e-09
      191.757   1.7837381e-08   1.5857921e-09
      190.104   1.8306059e-08   1.2808726e-09
      188.479   1.9203249e-08   1.9704502e-09
      186.882   2.0011293e-08   2.4094262e-09
      185.312   1.9743749e-08   2.4499015e-09
      183.767   1.9757278e-08   2.0408920e-09
      182.249   2.0044676e-08   2.7556800e-09
      180.755   1.9493286e-08   2.3610560e-09
      179.285   1.9201481e-08   1.4595072e-09
      177.839   1.8979396e-08   1.7224773e-09
      176.417   1.9543115e-08   1.6945686e-09
      175.016   2.0094233e-08   1.6219312e-09
      173.638   2.0160787e-08   1.6572195e-09
      172.282   1.9592465e-08   1.6958392e-09
      170.946   1.9329716e-08   2.3011680e-09
      169.631   2.0504902e-08   3.2925195e-09
      168.336   2.1092496e-08   2.9966867e-09
      167.061   2.1471444e-08   2.6121937e-09
      165.805   2.1188732e-08   1.9687358e-09
      164.568   2.0962101e-08   2.6421263e-09
      163.349   2.1571989e-08   2.6356652e-09
      162.148   2.2475424e-08   3.0912592e-09
      160.964   2.2736327e-08   2.7117217e-09
      159.798   2.2562196e-08   1.9585361e-09
      158.648   2.2661387e-08   1.9838531e-09
      157.515   2.1734435e-08   2.0249358e-09
      156.398   2.1035623e-08   3.1550821e-09
      155.296   2.0583860e-08   2.3156378e-09
      154.210   2.3153749e-08   1.4875532e-09
      153.139   2.6544308e-08   2.4877311e-09
      152.083   2.6352160e-08   3.3543616e-09
      151.042   2.4249112e-08   3.5615672e-09
      150.014   2.4148110e-08   2.8804730e-09
      149.001   2.6912814e-08   3.2578967e-09
      148.001   2.8606043e-08   5.8224626e-09
      147.014   2.6670053e-08   5.5008813e-09
      146.040   2.6274286e-08   5.6707089e-09
      145.079   2.8949382e-08   6.0462885e-09
      144.131   2.8586444e-08   7.7625594e-09
      143.195   2.7949727e-08   7.9944871e-09
      142.271   2.3481165e-08   4.2183111e-09
      141.359   2.3230237e-08   2.1979288e-09
      140.459   2.1071004e-08   4.1323649e-09
      139.570   1.8357170e-08   5.7210643e-09
      138.692   2.0270397e-08   4.7874737e-09
      137.825   2.0508340e-08   4.1043859e-09
      136.969   2.2776807e-08   5.6995588e-09
      136.124   2.3615156e-08   4.4241791e-09
      135.289   2.3103802e-08   2.4804538e-09
      134.464   2.8286176e-08   2.6527692e-09
      133.649   2.8646290e-08   1.0239507e-09
      132.844   2.8162807e-08   1.4093501e-09
      132.048   2.8397600e-08   2.9558441e-09
      131.262   2.4755596e-08   4.8608309e-09
      130.486   2.4434205e-08   9.4504789e-09
      129.718   2.2236799e-08   8.6898335e-09
      128.959   1.9915435e-08   3.6620974e-09
      128.210   2.1753715e-08   8.6115061e-09
      127.469   2.1296192e-08   1.4602365e-08
      126.736   2.4901190e-08   2.0697628e-08
#  WMAP
      4918.03   8.2390328e-14   4.9048618e-15
      3191.49   4.0049704e-13   1.5202856e-14
# DustEM: Reference observed SED for the DHGL medium
#         see Compiegne et al., 2011, A&A, 525, A103
#  Unit is 10^-20 W m-2 sr-1 H-1
#  
